#   1 NUMBER                 Running object number                                     
#   2 ALPHAPEAK_SKY          Right ascension of brightest pix (native)                  [deg]
#   3 DELTAPEAK_SKY          Declination of brightest pix (native)                      [deg]
#   4 X_IMAGE                Object position along x                                    [pixel]
#   5 Y_IMAGE                Object position along y                                    [pixel]
#   6 FLAGS                  Extraction flags                                          
#   7 CLASS_STAR             S/G classifier output                                     
         1  58.8985450 -38.4632659    662.8802     58.7741   0  0.064
         2  58.4604024 -38.4668186   1897.9387     44.2332   0  0.866
         3  58.9670277 -38.4684498    470.3451     40.2341   0  0.016
         4  58.4195883 -38.4697603   2012.6796     34.3161   0  0.214
         5  58.8570457 -38.4694148    778.7927     36.9323   0  0.244
         6  58.5143107 -38.4719476   1745.9371     27.3258   0  0.802
         7  58.6033665 -38.4718289   1495.1895     28.9290   0  0.121
         8  58.5955575 -38.4732065   1516.4629     24.6543   0  0.054
         9  58.5316913 -38.4733728   1697.0723     21.6507   0  0.198
        10  58.5654028 -38.4717693   1600.1526     26.1099   0  0.501
        11  58.9893934 -38.4731328    408.9022     22.7925   0  0.293
        12  58.6785785 -38.4763556   1283.2445     12.4526   0  0.285
        13  59.1309640 -38.4733416      7.6020     20.7272   0  0.327
        14  58.9748518 -38.4751033    447.9965     13.1484   0  0.007
        15  58.6367110 -38.4754824   1401.3636     14.9383   0  0.507
        16  58.5111005 -38.4766629   1755.6351      9.8854   0  0.222
        17  58.6164834 -38.4768468   1457.4882      9.6966   2  0.109
        18  58.6196728 -38.4787953   1449.7085      3.4221   2  0.304
        19  59.1114587 -38.4753439     62.9374     13.8486   0  0.488
        20  58.6895761 -38.4780303   1252.5153      6.1392   8  0.092
        21  58.8563457 -38.4774710    782.1476      7.8048   0  0.357
        22  58.7630259 -38.4786132   1044.3622      4.5199   8  0.212
        23  58.7804126 -38.4775018    995.5067      8.0065   0  0.467
        24  59.1132473 -38.4783943     58.2490      2.7169   8  0.519
        25  58.9014119 -38.4790963    654.7983      2.3907   0  0.353
        26  58.4507865 -38.4751265   1924.6140     15.3905   0  0.476
        27  58.7736707 -38.4730577   1014.8406     23.8292   0  0.545
        28  59.0908755 -38.4745681    120.2621     16.4259   0  0.497
        29  58.9464624 -38.4734822    528.2328     22.0001   0  0.437
        30  58.4561197 -38.4726408   1909.4131     23.9163   0  0.522
        31  58.9240876 -38.4632355    589.1914     57.5252   0  0.045
        32  58.8850708 -38.4674465    700.9418     44.6576   0  0.079
        33  59.1156939 -38.4706093     51.6373     30.8963   0  0.390
        34  58.6129685 -38.4615642   1467.9559     66.8515   0  0.000
        35  58.6945525 -38.4697002   1238.3693     36.6805   2  0.573
        36  58.7626717 -38.4730575   1046.4504     24.3684   0  0.483
        37  58.8996277 -38.4735427    659.7373     21.9927   0  0.481
        38  58.6927818 -38.4666434   1243.1483     47.2648   2  0.829
        39  59.0780891 -38.4715464    156.9581     28.1254   0  0.477
        40  58.8048933 -38.4724971    926.6310     25.6237   0  0.417
        41  59.0174079 -38.4686331    326.7383     40.8440   0  0.513
        42  58.4369756 -38.4692550   1963.9581     36.0926   0  0.509
        43  58.6643913 -38.4724548   1322.5092     26.4754   0  0.484
        44  58.8187282 -38.4688811    887.5448     39.3218   0  0.434
        45  58.9826447 -38.4706450    426.1268     32.4166   0  0.518
        46  58.6023247 -38.4621051   1497.8929     62.4840   0  0.013
        47  58.9322557 -38.4671135    567.7623     45.0924   0  0.574
        48  58.5707663 -38.4567782   1586.9879     82.4412   0  0.454
        49  58.7736701 -38.4619465   1015.5728     62.4279   0  0.017
        50  58.7410302 -38.4688874   1107.6085     39.6081   0  0.460
        51  58.5019123 -38.4666422   1781.2458     45.7902   0  0.478
        52  58.8393057 -38.4688709    830.5479     39.1138   0  0.350
        53  58.9989582 -38.4683924    379.5788     39.7182   0  0.374
        54  58.9758363 -38.4470456    445.7540    116.6586   0  0.265
        55  58.7314549 -38.4616624   1129.9287     64.5221   0  0.309
        56  58.7172629 -38.4644347   1173.5773     53.8589   0  0.542
        57  58.7999205 -38.4588872    940.1902     74.5714   0  0.024
        58  58.7016628 -38.4544265   1219.4945     90.7352   0  0.028
        59  58.9077756 -38.4668667    636.6829     45.8802   0  0.467
        60  58.4909239 -38.4641168   1811.8861     55.2699   0  0.625
        61  58.5093726 -38.4638811   1760.1692     56.3266   0  0.511
        62  58.6452608 -38.4557693   1376.4664     85.8419   0  0.038
        63  58.9301197 -38.4637831    574.1505     57.4509   0  0.461
        64  59.1280745 -38.4630724     15.2145     57.6596   0  0.394
        65  58.7154973 -38.4536004   1179.0153     94.0574   0  0.215
        66  58.5175380 -38.4622321   1737.0802     61.6339   0  0.486
        67  58.4987465 -38.4594127   1789.9446     72.2402   0  0.391
        68  59.0280207 -38.4599992    298.5489     70.2593   0  0.641
        69  59.0918829 -38.4617873    117.8182     63.0937   0  0.479
        70  58.4618607 -38.4576556   1894.0725     78.3068   0  0.354
        71  58.7232964 -38.4605483   1157.5996     68.8348   0  0.488
        72  58.7562881 -38.4577790   1063.8134     79.1731   0  0.432
        73  59.1326654 -38.4588917      2.5118     72.9975   8  0.419
        74  58.6214916 -38.4571307   1443.7922     81.0190   0  0.538
        75  58.6289377 -38.4588065   1423.6677     74.6691   0  0.409
        76  59.0769727 -38.4593269    160.1736     72.1689   0  0.353
        77  58.8311223 -38.4410973    852.4727    138.5095   0  0.057
        78  58.9882727 -38.4545235    409.7097     89.4910   0  0.495
        79  58.9442867 -38.4540407    535.7397     92.8742   0  0.012
        80  58.6037565 -38.4565515   1493.4689     82.8604   2  0.484
        81  58.5094058 -38.4547144   1760.4294     89.4708   0  0.692
        82  59.1305273 -38.4569537      8.9116     79.6410   0  0.436
        83  58.5335265 -38.4547651   1692.1777     88.3497   0  0.563
        84  58.5970241 -38.4534862   1512.4415     93.4477   0  0.617
        85  58.4139898 -38.4539100   2028.8442     90.9615   0  0.490
        86  58.8233282 -38.4522123    875.6985     98.2665   0  0.508
        87  58.9584781 -38.4551302    494.3325     87.7584   0  0.460
        88  59.0510659 -38.4566134    233.2131     82.4020   0  0.347
        89  59.0833110 -38.4484768    142.3912    110.9871   0  0.029
        90  58.7222384 -38.4511033   1159.3948    102.8868   0  0.249
        91  58.4654350 -38.4512759   1883.7562    100.8612   0  0.247
        92  58.4306940 -38.4470145   1982.6012    114.9899   2  0.009
        93  58.4289049 -38.4503428   1986.6941    103.6521   2  0.574
        94  58.5353100 -38.4517131   1687.3331     99.5960   0  0.465
        95  58.5416999 -38.4500589   1668.7214    105.5963   0  0.554
        96  58.7509711 -38.4430559   1078.6665    131.4530   0  0.011
        97  58.8137482 -38.4472162    902.7303    118.8178   0  0.377
        98  58.6810918 -38.4524684   1275.7069     97.9839   0  0.394
        99  59.0889504 -38.4404061    124.5465    141.7677   0  0.010
       100  59.1152115 -38.4439436     51.5728    127.1907   2  0.036
       101  58.9077290 -38.4424221    636.7949    134.3924   0  0.340
       102  58.5619239 -38.4478740   1611.2719    114.4613   0  0.483
       103  58.4512691 -38.4462384   1924.7040    118.3457   0  0.500
       104  58.6225917 -38.4396319   1442.5327    142.8283   0  0.015
       105  59.1226554 -38.4430883     32.1108    130.9165   2  0.159
       106  59.1183995 -38.4431009     43.0562    129.7148   2  0.193
       107  58.5012949 -38.4419183   1783.0703    135.0991   0  0.104
       108  58.6161951 -38.4457349   1459.5449    121.6212   0  0.613
       109  58.6286064 -38.4468615   1424.2689    117.9637   0  0.497
       110  58.4151005 -38.4444687   2025.7972    125.1945   0  0.365
       111  58.5321498 -38.4419844   1696.1599    134.7333   0  0.512
       112  58.7066383 -38.4435959   1204.2196    130.4648   0  0.546
       113  58.4810785 -38.4421484   1840.2184    134.0650   0  0.547
       114  59.0570146 -38.4360433    215.5231    155.7317   0  0.097
       115  58.8265097 -38.4383218    865.9109    151.0615   0  0.225
       116  58.6265021 -38.4349144   1430.6910    160.6297   0  0.039
       117  59.0116477 -38.4436446    344.6604    128.8899   0  0.407
       118  58.8460149 -38.4385887    811.7985    148.1296   0  0.379
       119  58.4169241 -38.4341962   2021.1693    162.1944   0  0.061
       120  59.1244042 -38.4380830     25.8849    147.7414   0  0.326
       121  58.7413960 -38.4413872   1106.4875    137.5132   0  0.386
       122  59.1162556 -38.4397738     49.6300    142.5426   0  0.436
       123  58.5108716 -38.4416619   1755.7112    135.9907   0  0.410
       124  59.0825380 -38.4337564    143.9926    163.9282   2  0.145
       125  58.9094932 -38.4376977    632.9358    150.7814   0  0.578
       126  58.9456751 -38.4415386    529.9922    137.0000   0  0.352
       127  58.6949380 -38.4402556   1237.4967    142.0062   0  0.350
       128  58.8938822 -38.4335484    675.6998    165.3385   0  0.148
       129  59.1063049 -38.4353580     77.4949    158.2788   0  0.190
       130  58.7172804 -38.4405455   1173.9916    140.5035   0  0.413
       131  58.7406894 -38.4347203   1107.3944    161.5267   0  0.027
       132  58.9194229 -38.4376856    604.0045    151.3759   0  0.521
       133  58.9158732 -38.4360234    614.9247    157.2014   0  0.306
       134  58.9328802 -38.4293345    564.3601    181.6671   0  0.105
       135  58.7069986 -38.4372071   1202.9243    153.4187   0  0.548
       136  59.0949420 -38.4320563    108.8184    169.7475   0  0.307
       137  58.8772217 -38.4377313    722.4986    150.4964   0  0.356
       138  58.4428124 -38.4339929   1947.7521    162.7072   0  0.539
       139  58.9910110 -38.4220180    399.8389    204.8730   0  0.011
       140  58.6711894 -38.4310714   1303.9445    174.6789   0  0.016
       141  58.9938879 -38.4350683    394.0125    159.3801   0  0.482
       142  58.4864246 -38.4354945   1824.9934    158.0076   0  0.488
       143  58.8311120 -38.4288750    852.0383    182.7183   0  0.020
       144  58.4566400 -38.4345860   1908.9946    160.5147   0  0.365
       145  59.1300479 -38.4319547     11.1727    169.9342   0  0.434
       146  58.9977677 -38.4283942    382.3780    184.1140   0  0.085
       147  58.8240148 -38.4216562    871.9836    210.1190   0  0.013
       148  59.0623149 -38.4313080    200.3992    173.2795   0  0.461
       149  58.7247332 -38.4322152   1152.9198    171.1695   0  0.490
       150  58.4672925 -38.4312804   1878.8479    172.9263   0  0.433
       151  59.1005928 -38.4270406     92.4524    187.2214   0  0.594
       152  59.1051328 -38.4120276     79.3164    242.1849   2  0.012
       153  58.4925002 -38.4232866   1808.9532    202.2000   0  0.010
       154  58.5311392 -38.4258711   1699.3696    195.3338   0  0.005
       155  58.8491930 -38.4260865    801.0827    193.7105   0  0.061
       156  58.5701478 -38.4239990   1588.6324    199.9445   2  0.129
       157  59.0129702 -38.4150305    339.8148    232.0384   0  0.883
       158  58.5581154 -38.4162002   1623.1387    228.3143   2  0.210
       159  58.8048692 -38.4222189    926.5214    205.6129   0  0.038
       160  58.8750777 -38.4266220    728.7657    191.3274   0  0.515
       161  58.6034699 -38.4271063   1495.0184    188.5150   0  0.498
       162  58.7488474 -38.4288887   1085.1368    183.5787   0  0.487
       163  58.9523806 -38.4284727    511.1229    183.8725   0  0.463
       164  58.6403452 -38.4277081   1390.5963    187.2438   0  0.376
       165  58.4134685 -38.4158522   2032.1974    228.7324   2  0.000
       166  58.6548849 -38.4266121   1349.8778    191.1608   0  0.493
       167  58.6130653 -38.4171194   1468.3895    225.2228   0  0.019
       168  58.4081200 -38.4219472   2045.2911    205.7908   8  0.152
       169  58.9229357 -38.4218477    593.3736    206.5027   0  0.220
       170  58.6591454 -38.4230050   1337.7567    204.1634   0  0.547
       171  59.0076870 -38.4255968    354.6085    194.0145   0  0.494
       172  58.5740503 -38.4231722   1577.8414    203.7213   2  0.073
       173  58.4545912 -38.4165247   1915.1824    225.8089   0  0.024
       174  58.8754275 -38.4232883    728.4996    203.1998   0  0.485
       175  59.0285770 -38.4172196    296.0167    224.3546   0  0.548
       176  58.7041771 -38.4202610   1212.6558    214.2569   0  0.442
       177  58.6701391 -38.4213482   1306.4305    209.8796   0  0.497
       178  58.5652091 -38.4151016   1602.9325    231.2117   2  0.055
       179  58.7339598 -38.4186072   1126.6660    220.1157   0  0.593
       180  59.0856773 -38.4218034    134.7823    207.4442   0  0.477
       181  58.7676410 -38.4183350   1031.6051    221.0412   0  0.556
       182  58.9824935 -38.4192558    426.3094    216.8582   0  0.507
       183  58.4265781 -38.4175577   1993.8693    222.4925   0  0.219
       184  58.6432024 -38.4160445   1383.4869    229.1506   0  0.540
       185  58.4730107 -38.4204614   1862.2883    211.5682   0  0.475
       186  58.9523491 -38.4159727    511.1134    229.1022   0  0.074
       187  58.5567096 -38.4120310   1627.3708    242.5588   2  0.072
       188  58.6634088 -38.4171756   1326.0341    225.4009   0  0.523
       189  59.1321087 -38.4186149      4.0068    217.9865   0  0.438
       190  58.8527298 -38.4183063    791.5030    221.4884   0  0.465
       191  58.5262718 -38.3972497   1712.6292    295.8237   2  0.910
       192  58.9750277 -38.4120466    447.4183    242.8125   0  0.111
       193  58.4914751 -38.4132841   1812.0698    238.5629   0  0.193
       194  58.6010152 -38.4154361   1502.4115    231.3027   0  0.597
       195  58.7474358 -38.4074994   1088.8857    259.3415   0  0.024
       196  58.4294917 -38.4011771   1985.5803    280.5237   0  0.037
       197  58.7144669 -38.4099884   1181.9658    250.7980   0  0.087
       198  59.1090259 -38.4106276     69.7193    246.7157   2  0.198
       199  58.5949937 -38.4132050   1518.8718    238.7169   0  0.588
       200  58.5357893 -38.4133802   1685.7294    237.7469   0  0.370
       201  58.4152671 -38.4105798   2025.9349    246.0550   2  0.054
       202  58.4557019 -38.4056942   1911.3376    263.9953   0  0.039
       203  58.6421458 -38.4121544   1386.0166    243.1003   0  0.484
       204  58.9633253 -38.4106774    479.3116    247.5353   0  0.549
       205  58.5347502 -38.4058781   1688.1272    264.8401   0  0.046
       206  58.6680255 -38.4116241   1313.0757    245.7064   0  0.505
       207  59.0856337 -38.4118034    135.1489    243.2517   0  0.491
       208  58.5244845 -38.4016905   1718.3123    280.4560   2  0.036
       209  59.0441533 -38.4110734    251.9736    246.5141   0  0.279
       210  59.0260589 -38.4069472    303.5739    261.9988   0  0.157
       211  59.1320740 -38.4116705      3.8823    242.8736   0  0.481
       212  58.9200792 -38.4121290    602.4979    242.5035   0  0.368
       213  58.8746906 -38.4041222    729.7188    271.0850   0  0.546
       214  58.6467615 -38.4079926   1373.2555    258.3003   0  0.561
       215  58.6375438 -38.4085382   1398.8925    255.3950   0  0.498
       216  58.9484287 -38.4076452    521.3193    258.8932   0  0.485
       217  58.9083751 -38.4093654    635.1352    252.7014   0  0.374
       218  58.8296607 -38.3888755    857.0022    326.9433   0  0.379
       219  58.9877590 -38.4017460    410.8225    280.9462   0  0.056
       220  59.0919876 -38.4056751    116.8165    264.9008   0  0.453
       221  58.7587799 -38.4036121   1057.7737    273.9324   0  0.073
       222  58.5974905 -38.4068198   1512.1304    261.5981   0  0.478
       223  58.6942629 -38.4077549   1239.1432    259.2959   0  0.380
       224  58.8548382 -38.4021936    786.3096    278.6544   0  0.224
       225  58.5950146 -38.4045939   1518.9523    269.5791   0  0.585
       226  58.6251389 -38.4074125   1434.0022    259.7522   0  0.352
       227  58.7357461 -38.3902742   1122.1614    322.3195   0  0.765
       228  58.8225777 -38.3955455    877.1241    303.4785   0  0.102
       229  58.9714563 -38.4026082    457.3359    276.3834   0  0.567
       230  58.5992728 -38.4026557   1507.5209    277.6155   0  0.399
       231  58.4652775 -38.4046082   1885.4957    268.5025   0  0.454
       232  58.4947610 -38.3882915   1801.5787    327.9837   0  0.796
       233  58.4121275 -38.4002924   2034.9166    284.0312   0  0.296
       234  58.7488559 -38.4002774   1084.6176    285.6331   0  0.554
       235  59.0160843 -38.3925238    332.2903    312.2576   0  0.075
       236  58.8651138 -38.3994080    756.5138    288.4210   0  0.525
       237  58.9147371 -38.3999133    616.4167    287.6116   0  0.540
       238  58.8169094 -38.3994368    892.8897    289.8298   0  0.542
       239  58.8023745 -38.3933305    934.7440    310.6459   0  0.009
       240  59.0820443 -38.4015350    144.8045    280.3996   0  0.356
       241  58.8452601 -38.3947000    813.4323    306.3588   0  0.041
       242  58.7782741 -38.3916679   1001.9205    317.0212   0  0.330
       243  58.7616161 -38.3994457   1049.5074    289.3900   0  0.485
       244  58.6443304 -38.3791010   1380.1426    362.4829   2  0.017
       245  58.4415999 -38.3887112   1951.7513    326.2313   0  0.217
       246  58.4380088 -38.3989790   1962.1146    289.1483   0  0.387
       247  59.0472448 -38.3852326    242.8900    339.2017   0  0.861
       248  58.8087554 -38.3961064    915.7487    300.3244   0  0.492
       249  58.4521938 -38.3973514   1922.5232    295.3622   0  0.380
       250  58.7017164 -38.3980372   1218.2377    293.7786   0  0.479
       251  58.9629308 -38.3956779    481.0802    301.8291   0  0.209
       252  58.8587308 -38.3969129    775.0811    298.0759   0  0.481
       253  58.5907761 -38.3984764   1530.6676    291.6745   0  0.356
       254  58.5539318 -38.3925813   1631.3469    314.0435   0  0.001
       255  59.0036701 -38.3894934    365.3488    322.7793   0  0.227
       256  58.9345729 -38.3940541    561.0117    308.1316   0  0.492
       257  58.7793365 -38.3847233    998.5010    341.5581   0  0.010
       258  58.6390198 -38.3765952   1394.2219    370.3010   2  0.449
       259  59.0816695 -38.3968137    145.6711    297.3328   0  0.351
       260  58.4111139 -38.3902892   2037.4130    318.9221   0  0.095
       261  58.7112921 -38.3908201   1190.5139    319.5514   0  0.282
       262  58.7871353 -38.3958337    977.1349    302.1298   0  0.353
       263  58.5411959 -38.3853350   1670.0355    338.9091   0  0.019
       264  58.9065174 -38.3640895    642.3860    416.9341   0  0.029
       265  58.6687685 -38.3874579   1310.4773    332.1380   0  0.045
       266  58.9310238 -38.3918367    570.4330    314.9961   0  0.529
       267  58.9239374 -38.3926795    590.9459    312.1343   0  0.488
       268  58.5769663 -38.3934545   1570.3705    309.5874   0  0.495
       269  58.6017870 -38.3884925   1499.3828    327.7233   0  0.094
       270  58.9157831 -38.3913009    614.0940    317.7885   0  0.565
       271  59.0331031 -38.3944317    283.2025    305.5951   0  0.368
       272  58.5805360 -38.3837380   1559.2817    344.5562   0  0.254
       273  58.4589556 -38.3909804   1903.2605    318.5266   0  0.516
       274  59.1128345 -38.3914497     57.6366    316.2053   0  0.515
       275  58.4780867 -38.3926959   1850.7096    311.4473   0  0.491
       276  58.5422371 -38.3922815   1667.1971    314.7413   0  0.479
